Wavelength,Reading
393.84,0.04411
394.84,0.03989
395.85,0.04295
396.85,0.04196
397.85,0.04189
398.86,0.04202
399.86,0.04018
400.86,0.04398
401.86,0.04122
402.86,0.04571
403.87,0.0414
404.87,0.04392
405.87,0.0439
406.87,0.04158
407.87,0.04626
408.86,0.04088
409.86,0.04046
410.86,0.04315
411.86,0.0438
412.86,0.0425
413.86,0.04073
414.85,0.04319
415.85,0.04206
416.85,0.04265
417.84,0.04371
418.84,0.04369
419.83,0.04319
420.83,0.04231
421.82,0.04234
422.82,0.04282
423.81,0.04242
424.8,0.04246
425.8,0.04174
426.79,0.04146
427.78,0.04287
428.77,0.04225
429.76,0.04193
430.76,0.042
431.75,0.04232
432.74,0.04176
433.73,0.04236
434.72,0.0419
435.71,0.04165
436.7,0.04192
437.69,0.04195
438.67,0.04224
439.66,0.04228
440.65,0.04166
441.64,0.04207
442.62,0.04189
443.61,0.04211
444.6,0.04233
445.58,0.04235
446.57,0.04218
447.55,0.04292
448.54,0.04219
449.52,0.0422
450.51,0.04274
451.49,0.04223
452.47,0.04223
453.46,0.04208
454.44,0.04208
455.42,0.04225
456.4,0.04225
457.39,0.04193
458.37,0.04193
459.35,0.0421
460.33,0.0421
461.31,0.04209
462.29,0.04193
463.27,0.0418
464.25,0.04222
465.23,0.04223
466.2,0.04251
467.18,0.04208
468.16,0.04221
469.14,0.04206
470.11,0.04234
471.09,0.04206
472.07,0.04178
473.04,0.04192
474.02,0.04205
474.99,0.04191
475.97,0.04218
476.94,0.04205
477.92,0.04205
478.89,0.04231
479.86,0.04205
480.84,0.04192
481.81,0.04181
482.78,0.04217
483.75,0.04217
484.73,0.04205
485.7,0.04205
486.67,0.04193
487.64,0.04217
488.61,0.04229
489.58,0.04195
490.55,0.04217
491.52,0.04174
492.49,0.04217
493.45,0.04229
494.42,0.04218
495.39,0.04176
496.36,0.04197
497.32,0.04217
498.29,0.04197
499.26,0.04228
500.22,0.04169
501.19,0.04178
502.15,0.04198
503.12,0.04207
504.08,0.04179
505.05,0.04208
506.01,0.04171
506.97,0.04216
507.94,0.04234
508.9,0.04198
509.86,0.04181
510.82,0.04198
511.78,0.04198
512.75,0.0419
513.71,0.04207
514.67,0.0419
515.63,0.0419
516.59,0.04191
517.55,0.04175
518.51,0.04191
519.46,0.0419
520.42,0.04176
521.38,0.04198
522.34,0.04176
523.29,0.04198
524.25,0.04177
525.21,0.04191
526.16,0.04191
527.12,0.04177
528.08,0.04192
529.03,0.04192
529.99,0.04192
530.94,0.04205
531.89,0.04198
532.85,0.04211
533.8,0.04191
534.75,0.04191
535.71,0.0421
536.66,0.04204
537.61,0.04186
538.56,0.04198
539.51,0.0418
540.46,0.04174
541.41,0.0418
542.36,0.04174
543.31,0.04197
544.26,0.0418
545.21,0.0418
546.16,0.04175
547.11,0.0417
548.06,0.04175
549.01,0.0417
549.95,0.04175
550.9,0.04181
551.85,0.04186
552.79,0.04182
553.74,0.04181
554.68,0.04176
555.63,0.04201
556.57,0.04176
557.52,0.04176
558.46,0.04176
559.4,0.04167
560.35,0.04162
561.29,0.04154
562.23,0.04181
563.18,0.04167
564.12,0.04176
565.06,0.04184
566,0.04184
566.94,0.0418
567.88,0.0418
568.82,0.04176
569.76,0.04172
570.7,0.04167
571.64,0.04163
572.58,0.04188
573.52,0.04175
574.45,0.04163
575.39,0.04175
576.33,0.04167
577.27,0.04174
578.2,0.04174
579.14,0.0417
580.07,0.04181
581.01,0.04173
581.94,0.04161
582.88,0.0416
583.81,0.04172
584.75,0.04171
585.68,0.04162
586.61,0.04165
587.55,0.04169
588.48,0.04165
589.41,0.04176
590.34,0.04183
591.27,0.04183
592.21,0.04178
593.14,0.04169
594.07,0.04173
595,0.04176
595.93,0.04168
596.86,0.04171
597.78,0.04171
598.71,0.04178
599.64,0.04161
600.57,0.04173
601.5,0.04176
602.42,0.04172
603.35,0.04167
604.28,0.04158
605.2,0.04182
606.13,0.04157
607.05,0.04161
607.98,0.04152
608.9,0.04155
609.83,0.04163
610.75,0.04162
611.68,0.04161
612.6,0.04161
613.52,0.04169
614.44,0.04173
615.37,0.04172
616.29,0.04155
617.21,0.04167
618.13,0.04162
619.05,0.0417
619.97,0.04165
620.89,0.0416
621.81,0.04164
622.73,0.04163
623.65,0.04163
624.57,0.04171
625.49,0.04166
626.4,0.04157
627.32,0.04152
628.24,0.04161
629.15,0.04147
630.07,0.04156
630.99,0.0416
631.9,0.04155
632.82,0.04159
633.73,0.04162
634.65,0.04152
635.56,0.04157
636.48,0.04166
637.39,0.04161
638.3,0.04178
639.21,0.04156
640.13,0.04151
641.04,0.04146
641.95,0.0415
642.86,0.04145
643.77,0.04141
644.68,0.04163
645.59,0.04162
646.5,0.04149
647.41,0.04157
648.32,0.04153
649.23,0.04148
650.14,0.04148
651.05,0.0416
651.96,0.0416
652.86,0.04159
653.77,0.04159
654.68,0.04154
655.58,0.04145
656.49,0.04154
657.4,0.04154
658.3,0.0415
659.21,0.04145
660.11,0.04153
661.01,0.04152
661.92,0.0416
662.82,0.04143
663.72,0.04147
664.63,0.04146
665.53,0.04145
666.43,0.04145
667.33,0.04149
668.23,0.04153
669.14,0.04153
670.04,0.04153
670.94,0.04152
671.84,0.04152
672.74,0.04151
673.64,0.04142
674.53,0.04155
675.43,0.04141
676.33,0.0414
677.23,0.04144
678.13,0.0414
679.02,0.04144
679.92,0.04144
680.82,0.04139
681.71,0.04129
682.61,0.04147
683.5,0.04142
684.4,0.04146
685.29,0.04146
686.19,0.04141
687.08,0.04132
687.97,0.04145
688.87,0.04145
689.76,0.0414
690.65,0.0414
691.54,0.04143
692.44,0.04129
693.33,0.04138
694.22,0.04142
695.11,0.04152
696,0.04156
696.89,0.04142
697.78,0.04155
698.67,0.04146
699.56,0.0415
700.44,0.04131
701.33,0.04149
702.22,0.0414
703.11,0.04153
703.99,0.04149
704.88,0.04139
705.77,0.04139
706.65,0.04143
707.54,0.04138
708.42,0.04138
709.31,0.04142
710.19,0.04129
711.08,0.04146
711.96,0.04142
712.84,0.0415
713.73,0.04142
714.61,0.04133
715.49,0.04141
716.37,0.04158
717.26,0.04145
718.14,0.04149
719.02,0.04137
719.9,0.04136
720.78,0.04136
721.66,0.04144
722.54,0.04148
723.42,0.04156
724.3,0.04131
725.17,0.04151
726.05,0.04151
726.93,0.04151
727.81,0.04143
728.68,0.04142
729.56,0.04142
730.44,0.04142
731.31,0.04138
732.19,0.04146
733.06,0.04138
733.94,0.04145
734.81,0.04133
735.69,0.04133
736.56,0.04141
737.43,0.0414
738.31,0.04144
739.18,0.04139
740.05,0.04143
740.92,0.04135
741.79,0.04146
742.67,0.0413
743.54,0.0413
744.41,0.04129
745.28,0.04141
746.15,0.04137
747.02,0.04141
747.89,0.04132
748.75,0.04123
749.62,0.04144
750.49,0.0413
751.36,0.04147
752.23,0.04129
753.09,0.04142
753.96,0.04142
754.83,0.04142
755.69,0.04141
756.56,0.04132
757.42,0.04145
758.29,0.0414
759.15,0.04136
760.01,0.04131
760.88,0.04131
761.74,0.04149
762.6,0.04139
763.47,0.04139
764.33,0.04139
765.19,0.04148
766.05,0.04138
766.91,0.04128
767.78,0.04128
768.64,0.04118
769.5,0.04127
770.36,0.04127
771.21,0.04126
772.07,0.04121
772.93,0.04121
773.79,0.04135
774.65,0.04125
775.51,0.0414
776.36,0.04125
777.22,0.04139
778.08,0.04129
778.93,0.04134
779.79,0.04128
780.64,0.04112
781.5,0.04133
782.35,0.04122
783.21,0.04132
784.06,0.04121
784.92,0.04132
785.77,0.04126
786.62,0.0412
787.47,0.04136
788.33,0.04125
789.18,0.04136
790.03,0.04107
790.88,0.04118
791.73,0.04112
792.58,0.04118
793.43,0.04129
794.28,0.04117
795.13,0.04134
795.98,0.04128
796.83,0.04105
797.68,0.04139
798.53,0.04133
799.37,0.04127
800.22,0.04115
801.07,0.04138
801.91,0.04132
802.76,0.04132
803.61,0.04119
804.45,0.04138
805.3,0.04131
806.14,0.04131
806.98,0.04131
807.83,0.04111
808.67,0.04124
809.52,0.04104
810.36,0.0413
811.2,0.04136
812.04,0.04136
812.89,0.04129
813.73,0.04122
814.57,0.04114
815.41,0.04114
816.25,0.04121
817.09,0.04127
817.93,0.04134
818.77,0.041
819.61,0.04099
820.45,0.04106
821.28,0.04112
822.12,0.04098
822.96,0.04133
823.8,0.04133
824.63,0.04111
825.47,0.04095
826.31,0.04117
827.14,0.04117
827.98,0.04124
828.81,0.04109
829.65,0.04101
830.48,0.04124
831.31,0.04131
832.15,0.041
832.98,0.04115
833.81,0.04138
834.65,0.0413
835.48,0.04122
836.31,0.04122
837.14,0.0413
837.97,0.04129
838.8,0.04121
839.63,0.04121
840.46,0.04137
841.29,0.04137
842.12,0.04137
842.95,0.04128
843.78,0.04128
844.61,0.04128
845.44,0.04119
846.26,0.04145
847.09,0.04127
847.92,0.04136
848.74,0.04119
849.57,0.04127
850.4,0.04135
851.22,0.04101
852.05,0.04126
852.87,0.04117
853.69,0.04126
854.52,0.04126
855.34,0.04099
856.17,0.04179
856.99,0.04125
857.81,0.04134
858.63,0.04125
