Wavelength,Reading
393.84,0.04044
394.84,0.04409
395.85,0.04408
396.85,0.04638
397.85,0.04517
398.86,0.04402
399.86,0.043
400.86,0.04398
401.86,0.04592
402.86,0.04395
403.87,0.04562
404.87,0.04478
405.87,0.0439
406.87,0.04389
407.87,0.04387
408.86,0.04385
409.86,0.0432
410.86,0.04445
411.86,0.0432
412.86,0.04379
413.86,0.04541
414.85,0.04323
415.85,0.04374
416.85,0.04372
417.84,0.04416
418.84,0.04412
419.83,0.04408
420.83,0.04405
421.82,0.04328
422.82,0.04398
423.81,0.04395
424.8,0.0436
425.8,0.04359
426.79,0.04357
427.78,0.04356
428.77,0.0438
429.76,0.04328
430.76,0.04328
431.75,0.04373
432.74,0.04393
433.73,0.04327
434.72,0.04347
435.71,0.04384
436.7,0.0442
437.69,0.04398
438.67,0.04359
439.66,0.04374
440.65,0.04355
441.64,0.04338
442.62,0.04351
443.61,0.04335
444.6,0.04362
445.58,0.04374
446.57,0.04358
447.55,0.04343
448.54,0.04367
449.52,0.04353
450.51,0.04327
451.49,0.04349
452.47,0.04325
453.46,0.04324
454.44,0.04366
455.42,0.04353
456.4,0.04331
457.39,0.04329
458.37,0.04318
459.35,0.04346
460.33,0.04335
461.31,0.04324
462.29,0.04332
463.27,0.0434
464.25,0.04312
465.23,0.04365
466.2,0.04336
467.18,0.04335
468.16,0.04325
469.14,0.04323
470.11,0.0433
471.09,0.04321
472.07,0.04295
473.04,0.04327
474.02,0.04333
474.99,0.0434
475.97,0.0433
476.94,0.04329
477.92,0.04312
478.89,0.04311
479.86,0.0431
480.84,0.04323
481.81,0.04307
482.78,0.04306
483.75,0.04312
484.73,0.04304
485.7,0.04309
486.67,0.04295
487.64,0.04288
488.61,0.04312
489.58,0.04311
490.55,0.04297
491.52,0.04302
492.49,0.04312
493.45,0.04305
494.42,0.04298
495.39,0.04308
496.36,0.04307
497.32,0.043
498.29,0.04294
499.26,0.04303
500.22,0.04292
501.19,0.04286
502.15,0.0429
503.12,0.04284
504.08,0.04283
505.05,0.04287
506.01,0.04281
506.97,0.04289
507.94,0.04284
508.9,0.04283
509.86,0.04282
510.82,0.04281
511.78,0.0428
512.75,0.04291
513.71,0.04286
514.67,0.04281
515.63,0.04276
516.59,0.04279
517.55,0.04282
518.51,0.04281
519.46,0.0428
520.42,0.04279
521.38,0.04281
522.34,0.04273
523.29,0.04269
524.25,0.04278
525.21,0.04256
526.16,0.04266
527.12,0.04268
528.08,0.04264
529.03,0.0426
529.99,0.04266
530.94,0.04271
531.89,0.04267
532.85,0.04263
533.8,0.04256
534.75,0.04261
535.71,0.04257
536.66,0.04262
537.61,0.04261
538.56,0.04258
539.51,0.04257
540.46,0.04259
541.41,0.04263
542.36,0.0426
543.31,0.04259
544.26,0.04253
545.21,0.04265
546.16,0.04256
547.11,0.04253
548.06,0.04247
549.01,0.04249
549.95,0.04248
550.9,0.04255
551.85,0.04256
552.79,0.04242
553.74,0.04252
554.68,0.04249
555.63,0.04246
556.57,0.04245
557.52,0.04247
558.46,0.04246
559.4,0.04245
560.35,0.0424
561.29,0.04242
562.23,0.04245
563.18,0.04242
564.12,0.04236
565.06,0.04239
566,0.04238
566.94,0.04239
567.88,0.04231
568.82,0.04236
569.76,0.04232
570.7,0.04235
571.64,0.04236
572.58,0.04236
573.52,0.04231
574.45,0.04234
575.39,0.04229
576.33,0.04235
577.27,0.04236
578.2,0.04234
579.14,0.04233
580.07,0.04227
581.01,0.04232
581.94,0.04233
582.88,0.04229
583.81,0.04229
584.75,0.04228
585.68,0.04227
586.61,0.04227
587.55,0.04228
588.48,0.04223
589.41,0.04227
590.34,0.04227
591.27,0.04224
592.21,0.04226
593.14,0.04225
594.07,0.0422
595,0.04219
595.93,0.04224
596.86,0.0422
597.78,0.04218
598.71,0.04217
599.64,0.04217
600.57,0.0422
601.5,0.04214
602.42,0.04219
603.35,0.0422
604.28,0.04215
605.2,0.04211
606.13,0.04214
607.05,0.04215
607.98,0.04215
608.9,0.04207
609.83,0.04214
610.75,0.04215
611.68,0.04208
612.6,0.04209
613.52,0.04212
614.44,0.04211
615.37,0.04213
616.29,0.04212
617.21,0.04207
618.13,0.04208
619.05,0.04206
619.97,0.04207
620.89,0.04205
621.81,0.04204
622.73,0.04207
623.65,0.04202
624.57,0.04201
625.49,0.04198
626.4,0.04209
627.32,0.04204
628.24,0.04202
629.15,0.04201
630.07,0.04203
630.99,0.04207
631.9,0.042
632.82,0.04198
633.73,0.04199
634.65,0.04199
635.56,0.04199
636.48,0.04198
637.39,0.04203
638.3,0.04197
639.21,0.04197
640.13,0.04195
641.04,0.04193
641.95,0.04197
642.86,0.04194
643.77,0.04191
644.68,0.04194
645.59,0.04194
646.5,0.04195
647.41,0.04192
648.32,0.04194
649.23,0.04192
650.14,0.04194
651.05,0.04188
651.96,0.04188
652.86,0.04191
653.77,0.04187
654.68,0.04187
655.58,0.04186
656.49,0.04189
657.4,0.04187
658.3,0.04185
659.21,0.04183
660.11,0.04186
661.01,0.04183
661.92,0.04189
662.82,0.04189
663.72,0.04188
664.63,0.04181
665.53,0.04183
666.43,0.04181
667.33,0.04179
668.23,0.04187
669.14,0.04181
670.04,0.04179
670.94,0.04181
671.84,0.04182
672.74,0.04188
673.64,0.04183
674.53,0.04184
675.43,0.04177
676.33,0.04175
677.23,0.04176
678.13,0.04178
679.02,0.04179
679.92,0.04175
680.82,0.04173
681.71,0.04176
682.61,0.04174
683.5,0.04179
684.4,0.04177
685.29,0.04177
686.19,0.04173
687.08,0.04173
687.97,0.04172
688.87,0.04174
689.76,0.04172
690.65,0.04171
691.54,0.04171
692.44,0.04167
693.33,0.04174
694.22,0.0417
695.11,0.04175
696,0.04168
696.89,0.04171
697.78,0.04179
698.67,0.04167
699.56,0.04168
700.44,0.0417
701.33,0.04169
702.22,0.04167
703.11,0.04167
703.99,0.04168
704.88,0.04168
705.77,0.04164
706.65,0.04166
707.54,0.04172
708.42,0.04167
709.31,0.04163
710.19,0.04165
711.08,0.0416
711.96,0.04166
712.84,0.04162
713.73,0.04163
714.61,0.04163
715.49,0.0416
716.37,0.04164
717.26,0.04164
718.14,0.04162
719.02,0.0416
719.9,0.0416
720.78,0.0416
721.66,0.04161
722.54,0.04158
723.42,0.04159
724.3,0.04158
725.17,0.04158
726.05,0.04156
726.93,0.04157
727.81,0.04159
728.68,0.04158
729.56,0.04159
730.44,0.04155
731.31,0.04153
732.19,0.04161
733.06,0.04156
733.94,0.04157
734.81,0.04156
735.69,0.04156
736.56,0.04155
737.43,0.04154
738.31,0.04155
739.18,0.04151
740.05,0.0415
740.92,0.04152
741.79,0.04152
742.67,0.04157
743.54,0.04154
744.41,0.04148
745.28,0.04155
746.15,0.04149
747.02,0.04152
747.89,0.04148
748.75,0.0415
749.62,0.04151
750.49,0.04152
751.36,0.0415
752.23,0.04147
753.09,0.04151
753.96,0.04154
754.83,0.04154
755.69,0.04149
756.56,0.04147
757.42,0.0415
758.29,0.04148
759.15,0.04151
760.01,0.04149
760.88,0.04143
761.74,0.04149
762.6,0.04147
763.47,0.04147
764.33,0.04146
765.19,0.04149
766.05,0.04148
766.91,0.04147
767.78,0.04141
768.64,0.04144
769.5,0.0415
770.36,0.04148
771.21,0.04146
772.07,0.04144
772.93,0.04146
773.79,0.04139
774.65,0.04145
775.51,0.0414
776.36,0.04138
777.22,0.04139
778.08,0.04141
778.93,0.04142
779.79,0.04144
780.64,0.04142
781.5,0.04142
782.35,0.0414
783.21,0.04141
784.06,0.04139
784.92,0.0413
785.77,0.04142
786.62,0.0414
787.47,0.04136
788.33,0.0414
789.18,0.04138
790.03,0.04137
790.88,0.04133
791.73,0.04139
792.58,0.04141
793.43,0.04138
794.28,0.04136
795.13,0.0414
795.98,0.04138
796.83,0.04136
797.68,0.04131
798.53,0.04129
799.37,0.04139
800.22,0.04135
801.07,0.04132
801.91,0.04136
802.76,0.04132
803.61,0.0413
804.45,0.04129
805.3,0.04129
806.14,0.04129
806.98,0.04133
807.83,0.04137
808.67,0.0413
809.52,0.04132
810.36,0.0413
811.2,0.04132
812.04,0.04129
812.89,0.04129
813.73,0.04131
814.57,0.04128
815.41,0.04128
816.25,0.04126
817.09,0.04128
817.93,0.04123
818.77,0.04123
819.61,0.04134
820.45,0.04122
821.28,0.04133
822.12,0.04129
822.96,0.04124
823.8,0.04123
824.63,0.04121
825.47,0.0412
826.31,0.04125
827.14,0.04127
827.98,0.04127
828.81,0.04131
829.65,0.04126
830.48,0.04129
831.31,0.04128
832.15,0.04121
832.98,0.04131
833.81,0.04125
834.65,0.0413
835.48,0.04133
836.31,0.04127
837.14,0.04127
837.97,0.04124
838.8,0.04116
839.63,0.04119
840.46,0.04118
841.29,0.04126
842.12,0.04118
842.95,0.04123
843.78,0.04123
844.61,0.04128
845.44,0.04122
846.26,0.04128
847.09,0.04125
847.92,0.04127
848.74,0.04119
849.57,0.04116
850.4,0.04116
851.22,0.04118
852.05,0.04118
852.87,0.04118
853.69,0.04126
854.52,0.04117
855.34,0.0412
856.17,0.04111
856.99,0.04111
857.81,0.04111
858.63,0.04125
