"Wavelength","Value"
450.5,1.5103
451.49,1.5087
452.47,1.5071
453.45,1.5055
454.43,1.5039
455.42,1.5023
456.4,1.5008
457.38,1.4993
458.36,1.4978
459.34,1.4963
460.32,1.4949
461.3,1.4934
462.28,1.492
463.26,1.4906
464.24,1.4892
465.22,1.4879
466.2,1.4865
467.18,1.4852
468.15,1.4839
469.13,1.4826
470.11,1.4813
471.09,1.48
472.06,1.4788
473.04,1.4775
474.01,1.4763
474.99,1.4751
475.96,1.4739
476.94,1.4727
477.91,1.4716
478.89,1.4704
479.86,1.4693
480.83,1.4682
481.8,1.4671
482.78,1.466
483.75,1.4649
484.72,1.4638
485.69,1.4628
486.66,1.4617
487.63,1.4607
488.6,1.4597
489.57,1.4587
490.54,1.4577
491.51,1.4567
492.48,1.4558
493.45,1.4548
494.42,1.4539
495.38,1.4529
496.35,1.452
497.32,1.4511
498.29,1.4502
499.25,1.4493
500.22,1.4484
501.18,1.4476
502.15,1.4467
503.11,1.4459
504.08,1.445
505.04,1.4442
506,1.4434
506.97,1.4426
507.93,1.4418
508.89,1.441
509.86,1.4402
510.82,1.4394
511.78,1.4387
512.74,1.4379
513.7,1.4372
514.66,1.4364
515.62,1.4357
516.58,1.435
517.54,1.4343
518.5,1.4336
519.46,1.4329
520.42,1.4322
521.38,1.4315
522.33,1.4309
523.29,1.4302
524.25,1.4296
525.2,1.4289
526.16,1.4283
527.12,1.4276
528.07,1.427
529.03,1.4264
529.98,1.4258
530.93,1.4252
531.89,1.4246
532.84,1.424
533.8,1.4234
534.75,1.4228
535.7,1.4223
536.65,1.4217
537.61,1.4212
538.56,1.4206
539.51,1.4201
540.46,1.4195
541.41,1.419
542.36,1.4185
543.31,1.418
544.26,1.4174
545.21,1.4169
546.16,1.4164
547.1,1.4159
548.05,1.4155
549,1.415
549.95,1.4145
550.89,1.414
551.84,1.4135
552.79,1.4131
553.73,1.4126
554.68,1.4122
555.62,1.4117
556.57,1.4113
557.51,1.4108
558.46,1.4104
559.4,1.41
560.34,1.4096
561.29,1.4091
562.23,1.4087
563.17,1.4083
564.11,1.4079
565.05,1.4075
565.99,1.4071
566.94,1.4067
567.88,1.4063
568.82,1.406
569.76,1.4056
570.7,1.4052
571.63,1.4048
572.57,1.4045
573.51,1.4041
574.45,1.4038
575.39,1.4034
576.32,1.403
577.26,1.4027
578.2,1.4024
579.13,1.402
580.07,1.4017
581,1.4014
581.94,1.401
582.87,1.4007
583.81,1.4004
584.74,1.4001
585.68,1.3998
586.61,1.3994
587.54,1.3991
588.47,1.3988
589.41,1.3985
590.34,1.3982
591.27,1.3979
592.2,1.3977
593.13,1.3974
594.06,1.3971
594.99,1.3968
595.92,1.3965
596.85,1.3963
597.78,1.396
598.71,1.3957
599.64,1.3955
600.56,1.3952
601.49,1.3949
602.42,1.3947
603.35,1.3944
604.27,1.3942
605.2,1.3939
606.12,1.3937
607.05,1.3934
607.97,1.3932
608.9,1.393
609.82,1.3927
610.75,1.3925
611.67,1.3923
612.59,1.392
613.52,1.3918
614.44,1.3916
615.36,1.3914
616.28,1.3911
617.2,1.3909
618.12,1.3907
619.05,1.3905
619.97,1.3903
620.89,1.3901
621.81,1.3899
622.72,1.3897
623.64,1.3895
624.56,1.3893
625.48,1.3891
626.4,1.3889
627.32,1.3887
628.23,1.3885
629.15,1.3883
630.07,1.3882
630.98,1.388
631.9,1.3878
632.81,1.3876
633.73,1.3874
634.64,1.3873
635.56,1.3871
636.47,1.3869
637.38,1.3868
638.3,1.3866
639.21,1.3864
640.12,1.3863
641.03,1.3861
641.95,1.3859
642.86,1.3858
643.77,1.3856
644.68,1.3855
645.59,1.3853
646.5,1.3852
647.41,1.385
648.32,1.3849
649.23,1.3847
650.14,1.3846
651.04,1.3844
651.95,1.3843
652.86,1.3841
653.77,1.384
654.67,1.3839
655.58,1.3837
656.48,1.3836
657.39,1.3835
658.3,1.3833
659.2,1.3832
660.11,1.3831
661.01,1.383
661.91,1.3828
662.82,1.3827
663.72,1.3826
664.62,1.3825
665.52,1.3823
666.43,1.3822
667.33,1.3821
668.23,1.382
669.13,1.3819
670.03,1.3818
670.93,1.3816
671.83,1.3815
672.73,1.3814
673.63,1.3813
674.53,1.3812
675.43,1.3811
676.33,1.381
677.22,1.3809
678.12,1.3808
679.02,1.3807
679.91,1.3806
680.81,1.3805
681.71,1.3804
682.6,1.3803
683.5,1.3802
684.39,1.3801
685.29,1.38
686.18,1.3799
687.07,1.3798
687.97,1.3797
688.86,1.3797
689.75,1.3796
690.65,1.3795
691.54,1.3794
692.43,1.3793
693.32,1.3792
694.21,1.3791
695.1,1.3791
695.99,1.379
696.88,1.3789
697.77,1.3788
698.66,1.3787
699.55,1.3787
700.44,1.3786
701.33,1.3785
702.21,1.3784
703.1,1.3784
703.99,1.3783
704.88,1.3782
705.76,1.3781
706.65,1.3781
707.53,1.378
708.42,1.3779
709.3,1.3779
710.19,1.3778
711.07,1.3777
711.96,1.3777
712.84,1.3776
713.72,1.3775
714.6,1.3775
715.49,1.3774
716.37,1.3773
717.25,1.3773
718.13,1.3772
719.01,1.3772
719.89,1.3771
720.77,1.377
721.65,1.377
722.53,1.3769
723.41,1.3769
724.29,1.3768
725.17,1.3768
726.05,1.3767
726.92,1.3766
727.8,1.3766
728.68,1.3765
729.56,1.3765
730.43,1.3764
731.31,1.3764
732.18,1.3763
733.06,1.3763
733.93,1.3762
734.81,1.3762
735.68,1.3761
736.56,1.3761
737.43,1.3761
738.3,1.376
739.17,1.376
740.05,1.3759
740.92,1.3759
741.79,1.3758
742.66,1.3758
743.53,1.3757
744.4,1.3757
745.27,1.3757
746.14,1.3756
747.01,1.3756
747.88,1.3755
748.75,1.3755
749.62,1.3755
750.49,1.3754
751.35,1.3754
752.22,1.3754
753.09,1.3753
753.95,1.3753
754.82,1.3752
755.69,1.3752
756.55,1.3752
757.42,1.3751
758.28,1.3751
759.15,1.3751
760.01,1.375
760.87,1.375
761.74,1.375
762.6,1.3749
763.46,1.3749
764.32,1.3749
765.19,1.3749
766.05,1.3748
766.91,1.3748
767.77,1.3748
768.63,1.3747
769.49,1.3747
770.35,1.3747
771.21,1.3747
772.07,1.3746
772.93,1.3746
773.79,1.3746
774.64,1.3746
775.5,1.3745
776.36,1.3745
777.22,1.3745
778.07,1.3745
778.93,1.3744
779.78,1.3744
780.64,1.3744
781.49,1.3744
782.35,1.3743
783.2,1.3743
784.06,1.3743
784.91,1.3743
785.76,1.3743
786.62,1.3742
787.47,1.3742
788.32,1.3742
789.17,1.3742
790.03,1.3742
790.88,1.3741
791.73,1.3741
792.58,1.3741
793.43,1.3741
794.28,1.3741
795.13,1.374
795.98,1.374
796.82,1.374
797.67,1.374
798.52,1.374
799.37,1.374
